DU=/banyo, USER=mfjofre, NAME=cq_01139, EXPNO=1, PROCNO=1
F1=11.000ppm, F2=-1.000ppm, MI=0.00cm, MAXI=10000.00cm, PC=1.000
     #     ADDRESS            FREQUENCY         INTENSITY
                           [Hz]        [PPM]
     1     20592.3     3635.774       7.2739         0.62
     2     22987.0     3379.893       6.7619         1.32
     3     23000.5     3378.443       6.7590         1.27
     4     23019.0     3376.469       6.7551         1.28
     5     23032.1     3375.072       6.7523         1.34
     6     31405.3     2480.362       4.9623         0.02
     7     31644.2     2454.829       4.9112         0.02
     8     32125.1     2403.448       4.8084         1.88
     9     32358.2     2378.535       4.7586         1.31
    10     41930.3     1355.717       2.7123         0.44
    11     42056.3     1342.248       2.6854         0.79
    12     42155.5     1331.650       2.6642         0.61
    13     42191.8     1327.778       2.6564         0.41
    14     42435.1     1301.771       2.6044         1.12
    15     42456.6     1299.479       2.5998         1.01
    16     42585.0     1285.761       2.5723         1.47
    17     42606.6     1283.450       2.5677         1.34
    18     43084.9     1232.347       2.4655         0.74
    19     43212.8     1218.680       2.4381         0.77
    20     43255.4     1214.127       2.4290         1.16
    21     43478.4     1190.300       2.3814         1.91
    22     43603.7     1176.904       2.3546         1.87
    23     43627.8     1174.325       2.3494         1.68
    24     43754.7     1160.773       2.3223         1.75
    25     43784.7     1157.560       2.3159         1.06
    26     43807.7     1155.108       2.3110         0.78
    27     43834.8     1152.215       2.3052         0.48
    28     43864.0     1149.087       2.2989         0.70
    29     43886.7     1146.666       2.2941         0.91
    30     43909.6     1144.218       2.2892         0.80
    31     43932.2     1141.805       2.2843         0.68
    32     43955.4     1139.327       2.2794         0.67
    33     43978.2     1136.886       2.2745         0.49
    34     44005.3     1133.995       2.2687         0.31
    35     44034.4     1130.879       2.2625         0.44
    36     44057.1     1128.453       2.2576         0.57
    37     44079.3     1126.086       2.2529         0.42
    38     44831.5     1045.707       2.0921         0.01
    39     45664.2      956.733       1.9141         0.06
    40     45830.0      939.020       1.8786         0.09
    41     46252.6      893.856       1.7883         9.03
    42     46410.8      876.959       1.7545        12.50
    43     46629.3      853.612       1.7078         0.33
    44     46857.2      829.250       1.6590         0.08
    45     47007.8      813.161       1.6268         0.08
    46     47989.9      708.218       1.4169         0.01
    47     48747.1      627.314       1.2550         0.13
    48     48858.8      615.375       1.2311         0.03
    49     49030.3      597.049       1.1945         0.02
    50     49079.9      591.745       1.1839         0.03
    51     49580.1      538.303       1.0769         0.03
    52     54617.8        0.003       0.0000         0.55
